File: xrd/SAIFXR190711G-02(B) .uxd
; (content of file E:\SAIF User Data\2019\Adrine Correya RS,ISP,CUSAT\190711G\SAIFXR190711G-02(B).raw)
_FILEVERSION = 2
_SAMPLE = B
_+SAMPLE =
_SITE = "Cochin Uni"
_USER = "Cochin Uni"
_GONIOMETER_CODE = 20
; Goniometer : D8 theta/2theta, stage : Unknown
_SAMPLE_CHANGER_CODE = 0
_ATTACHMENTS_CODE = 0
_GONIOMETER_RADIUS = 217.5
_FIXED_DIVSLIT = 0.15
_FIXED_SAMPLESLIT = 1
_SOLLER_SLITS = 2
_FIXED_DETSLIT = 1
_MONOCHROMATOR = 0
; Incident beam monochromator : None
_THIN_FILM = N
_BETA_FILTER = N
_FIXED_ANTISLIT = 0.15
_ANALYZER_CODE = 0
; Received beam analyzer : None
_DATEMEASURED = "15-Jul-2019 15:21:48"
_WL_UNIT = A
_WL1 = 1.5406
_WL2 = 1.54439
_WL3 = 1.39222
_WLRATIO = 0.5
_ANODE = Cu

; Data for range 1
_DRIVE = COUPLED
_STEPTIME = 59.67
_STEPSIZE = 0.0198849
_STEPMODE = C
_START = 3
_THETA = 1.5
_2THETA = 3
_KHI = 0
_PHI = 0
_X = 0
_Y = 0
_Z = 0
_DETECTOR = 5
; Detector type : Unknown
_DETECTORSLIT = out
_AUX1 = 0
_AUX2 = 0
_AUX3 = 0
_TIMESTARTED = 11
_TEMP_RATE = -1
_TEMP_DELAY = -1
_KV = 40
_MA = 40
_RANGE_WL = 1.5406
_3DPLANE = 0
_V4_COUNTERS_MASK = 4096
_V4_DRIVES_MASK = 0
_V4_ENCODERS_MASK = 0
_2THETACOUNTS = 1
; 2THETA  PSD
   3.0000       2307
   3.2585       2008
   3.5170       1777
   3.7755       1640
   4.0340       1546
   4.2925       1515
   4.5510       1566
   4.8095       1488
   5.0680       1411
   5.3265       1332
   5.5850       1257
   5.8435       1265
   6.1020       1220
   6.3605       1177
   6.6191       1135
   6.8776       1087
   7.1361       1051
   7.3946        983
   7.6531        981
   7.9116        940
   8.1701        889
   8.4286        894
   8.6871        902
   8.9456        845
   9.2041        813
   9.4626        801
   9.7211        776
   9.9796        766
  10.2381        764
  10.4966        805
  10.7551        825
  11.0136        745
  11.2721        732
  11.5306        755
  11.7891        784
  12.0476        773
  12.3061        794
  12.5646        894
  12.8231        847
  13.0816        673
  13.3401        699
  13.5987        644
  13.8572        586
  14.1157        623
  14.3742        643
  14.6327        687
  14.8912        497
  15.1497        578
  15.4082        542
  15.6667        563
  15.9252        652
  16.1837        664
  16.4422        530
  16.7007        503
  16.9592        471
  17.2177        524
  17.4762        470
  17.7347        487
  17.9932        431
  18.2517        444
  18.5102        445
  18.7687        420
  19.0272        434
  19.2857        468
  19.5442        503
  19.8027        443
  20.0612        428
  20.3197        417
  20.5783        426
  20.8368        407
  21.0953        403
  21.3538        496
  21.6123        586
  21.8708        400
  22.1293        410
  22.3878        439
  22.6463        441
  22.9048        509
  23.1633       2049
  23.4218        635
  23.6803        977
  23.9388        643
  24.1973        482
  24.4558        554
  24.7143        422
  24.9728        426
  25.2313        447
  25.4898        488
  25.7483        495
  26.0068        477
  26.2653        484
  26.5238        455
  26.7823        890
  27.0408        632
  27.2993       1052
  27.5579        688
  27.8164       2093
  28.0749        663
  28.3334        697
  28.5919        576
  28.8504        591
  29.1089        642
  29.3674        818
  29.6259       1307
  29.8844       6460
  30.1429       1805
  30.4014        896
  30.6599        619
  30.9184        502
  31.1769        437
  31.4354        499
  31.6939        498
  31.9524        434
  32.2109        587
  32.4694       1288
  32.7279       1877
  32.9864       1334
  33.2449        497
  33.5034        372
  33.7619        391
  34.0204        345
  34.2789        346
  34.5375        449
  34.7960        400
  35.0545        384
  35.3130        380
  35.5715        319
  35.8300        327
  36.0885        286
  36.3470        300
  36.6055        338
  36.8640        465
  37.1225        295
  37.3810        376
  37.6395        325
  37.8980        335
  38.1565        754
  38.4150        364
  38.6735        320
  38.9320        297
  39.1905        336
  39.4490        549
  39.7075        802
  39.9660        351
  40.2245        305
  40.4830        269
  40.7415        249
  41.0000        274
  41.2585        302
  41.5171        309
  41.7756        377
  42.0341        486
  42.2926        365
  42.5511        321
  42.8096        330
  43.0681        312
  43.3266        256
  43.5851        254
  43.8436        266
  44.1021        290
  44.3606        256
  44.6191        227
  44.8776        292
  45.1361        291
  45.3946        302
  45.6531        277
  45.9116        330
  46.1701        525
  46.4286        406
  46.6871        576
  46.9456        625
  47.2041        805
  47.4626        405
  47.7211        486
  47.9796        322
  48.2381        324
  48.4967        386
  48.7552        314
  49.0137        273
  49.2722        281
  49.5307        311
  49.7892        379
  50.0477        334
  50.3062        298
  50.5647        326
  50.8232        322
  51.0817        381
  51.3402        850
  51.5987        455
  51.8572        463
  52.1157        493
  52.3742        465
  52.6327        375
  52.8912        406
  53.1497        453
  53.4082        387
  53.6667        336
  53.9252        340
  54.1837        401
  54.4422        346
  54.7007        306
  54.9592        318
  55.2177        372
  55.4763        447
  55.7348        357
  55.9933        373
  56.2518        389
  56.5103        519
  56.7688        904
  57.0273        861
  57.2858        385
  57.5443        353
  57.8028        303
  58.0613        306
  58.3198        357
  58.5783        288
  58.8368        302
  59.0953        265
  59.3538        243
  59.6123        235
  59.8708        251
  60.1293        203
  60.3878        218
  60.6463        203
  60.9048        229
  61.1633        248
  61.4218        242
  61.6803        262
  61.9388        301
  62.1973        368
  62.4559        391
  62.7144        275
  62.9729        242
  63.2314        247
  63.4899        229
  63.7484        208
  64.0069        275
  64.2654        317
  64.5239        215
  64.7824        219
  65.0409        219
  65.2994        197
  65.5579        260
  65.8164        257
  66.0749        199
  66.3334        209
  66.5919        215
  66.8504        200
  67.1089        182
  67.3674        200
  67.6259        199
  67.8844        240
  68.1429        238
  68.4014        240
  68.6599        258
  68.9184        200
  69.1769        338
  69.4355        287
  69.6940        225
  69.9525        205
  70.2110        201
  70.4695        163
  70.7280        171
  70.9865        191
  71.2450        205
  71.5035        202
  71.7620        199
  72.0205        256
  72.2790        214
  72.5375        179
  72.7960        205
  73.0545        230
  73.3130        211
  73.5715        192
  73.8300        229
  74.0885        203
  74.3470        228
  74.6055        222
  74.8640        202
  75.1225        193
  75.3810        218
  75.6395        199
  75.8980        198
  76.1565        186
  76.4151        255
  76.6736        260
  76.9321        273
  77.1906        267
  77.4491        229
  77.7076        254
  77.9661        236
  78.2246        243
  78.4831        217
  78.7416        237
  79.0001        213
  79.2586        158
  79.5171        197
  79.7756        169
  79.9943        162