File: xrd/SAIFXR190711G-03(C) .uxd
; (content of file E:\SAIF User Data\2019\Adrine Correya RS,ISP,CUSAT\190711G\SAIFXR190711G-03(C).raw)
_FILEVERSION = 2
_SAMPLE = C
_+SAMPLE =
_SITE = "Cochin Uni"
_USER = "Cochin Uni"
_GONIOMETER_CODE = 20
; Goniometer : D8 theta/2theta, stage : Unknown
_SAMPLE_CHANGER_CODE = 0
_ATTACHMENTS_CODE = 0
_GONIOMETER_RADIUS = 217.5
_FIXED_DIVSLIT = 0.15
_FIXED_SAMPLESLIT = 1
_SOLLER_SLITS = 2
_FIXED_DETSLIT = 1
_MONOCHROMATOR = 0
; Incident beam monochromator : None
_THIN_FILM = N
_BETA_FILTER = N
_FIXED_ANTISLIT = 0.15
_ANALYZER_CODE = 0
; Received beam analyzer : None
_DATEMEASURED = "15-Jul-2019 15:59:39"
_WL_UNIT = A
_WL1 = 1.5406
_WL2 = 1.54439
_WL3 = 1.39222
_WLRATIO = 0.5
_ANODE = Cu

; Data for range 1
_DRIVE = COUPLED
_STEPTIME = 59.67
_STEPSIZE = 0.0198849
_STEPMODE = C
_START = 3
_THETA = 1.5
_2THETA = 3
_KHI = 0
_PHI = 0
_X = 0
_Y = 0
_Z = 0
_DETECTOR = 5
; Detector type : Unknown
_DETECTORSLIT = out
_AUX1 = 0
_AUX2 = 0
_AUX3 = 0
_TIMESTARTED = 16
_TEMP_RATE = -1
_TEMP_DELAY = -1
_KV = 40
_MA = 40
_RANGE_WL = 1.5406
_3DPLANE = 0
_V4_COUNTERS_MASK = 4096
_V4_DRIVES_MASK = 0
_V4_ENCODERS_MASK = 0
_2THETACOUNTS = 1
; 2THETA  PSD
   3.0000       2304
   3.2585       1935
   3.5170       1674
   3.7755       1496
   4.0340       1490
   4.2925       1468
   4.5510       1368
   4.8095       1312
   5.0680       1221
   5.3265       1219
   5.5850       1117
   5.8435       1101
   6.1020       1111
   6.3605       1077
   6.6191        997
   6.8776       1001
   7.1361        914
   7.3946       1007
   7.6531        926
   7.9116        872
   8.1701        942
   8.4286        859
   8.6871        780
   8.9456        829
   9.2041        824
   9.4626        749
   9.7211        735
   9.9796        759
  10.2381        710
  10.4966        779
  10.7551       1004
  11.0136        737
  11.2721        755
  11.5306        759
  11.7891        790
  12.0476        687
  12.3061        710
  12.5646        691
  12.8231        707
  13.0816        750
  13.3401        657
  13.5987        673
  13.8572        615
  14.1157        599
  14.3742        569
  14.6327        711
  14.8912        572
  15.1497        560
  15.4082        548
  15.6667        520
  15.9252        664
  16.1837        639
  16.4422        542
  16.7007        476
  16.9592        521
  17.2177        492
  17.4762        453
  17.7347        438
  17.9932        445
  18.2517        424
  18.5102        469
  18.7687        433
  19.0272        431
  19.2857        427
  19.5442        460
  19.8027        443
  20.0612        393
  20.3197        426
  20.5783        393
  20.8368        410
  21.0953        422
  21.3538        431
  21.6123        564
  21.8708        426
  22.1293        419
  22.3878        448
  22.6463        504
  22.9048        539
  23.1633       1722
  23.4218        665
  23.6803        702
  23.9388        644
  24.1973        471
  24.4558        575
  24.7143        472
  24.9728        453
  25.2313        423
  25.4898        467
  25.7483        470
  26.0068        418
  26.2653        459
  26.5238        510
  26.7823        710
  27.0408        622
  27.2993        903
  27.5579       1650
  27.8164       1201
  28.0749        779
  28.3334        776
  28.5919        770
  28.8504        749
  29.1089        809
  29.3674        966
  29.6259       1585
  29.8844       5313
  30.1429       1467
  30.4014        959
  30.6599        792
  30.9184        590
  31.1769        505
  31.4354        513
  31.6939        502
  31.9524        510
  32.2109        813
  32.4694       1323
  32.7279       2102
  32.9864       1393
  33.2449        484
  33.5034        372
  33.7619        449
  34.0204        434
  34.2789        396
  34.5375        536
  34.7960        420
  35.0545        375
  35.3130        421
  35.5715        301
  35.8300        322
  36.0885        320
  36.3470        307
  36.6055        348
  36.8640        433
  37.1225        323
  37.3810        315
  37.6395        399
  37.8980        440
  38.1565        651
  38.4150        435
  38.6735        383
  38.9320        314
  39.1905        378
  39.4490        536
  39.7075        814
  39.9660        371
  40.2245        331
  40.4830        300
  40.7415        276
  41.0000        300
  41.2585        301
  41.5171        340
  41.7756        357
  42.0341        393
  42.2926        355
  42.5511        356
  42.8096        422
  43.0681        294
  43.3266        290
  43.5851        289
  43.8436        302
  44.1021        318
  44.3606        315
  44.6191        319
  44.8776        380
  45.1361        409
  45.3946        408
  45.6531        355
  45.9116        381
  46.1701        416
  46.4286        501
  46.6871        754
  46.9456        655
  47.2041       1080
  47.4626        458
  47.7211        546
  47.9796        346
  48.2381        363
  48.4967        349
  48.7552        334
  49.0137        344
  49.2722        353
  49.5307        447
  49.7892        421
  50.0477        353
  50.3062        416
  50.5647        333
  50.8232        368
  51.0817        485
  51.3402        966
  51.5987        524
  51.8572        408
  52.1157        473
  52.3742        586
  52.6327        499
  52.8912        548
  53.1497        512
  53.4082        504
  53.6667        354
  53.9252        342
  54.1837        375
  54.4422        362
  54.7007        384
  54.9592        408
  55.2177        406
  55.4763        492
  55.7348        450
  55.9933        501
  56.2518        477
  56.5103        592
  56.7688       1074
  57.0273       1020
  57.2858        481
  57.5443        373
  57.8028        357
  58.0613        329
  58.3198        357
  58.5783        347
  58.8368        321
  59.0953        385
  59.3538        277
  59.6123        273
  59.8708        253
  60.1293        251
  60.3878        244
  60.6463        290
  60.9048        258
  61.1633        286
  61.4218        247
  61.6803        292
  61.9388        332
  62.1973        429
  62.4559        418
  62.7144        255
  62.9729        294
  63.2314        235
  63.4899        216
  63.7484        243
  64.0069        335
  64.2654        353
  64.5239        251
  64.7824        272
  65.0409        225
  65.2994        258
  65.5579        227
  65.8164        252
  66.0749        232
  66.3334        255
  66.5919        242
  66.8504        229
  67.1089        209
  67.3674        200
  67.6259        251
  67.8844        224
  68.1429        243
  68.4014        282
  68.6599        326
  68.9184        243
  69.1769        389
  69.4355        367
  69.6940        265
  69.9525        218
  70.2110        229
  70.4695        200
  70.7280        210
  70.9865        207
  71.2450        222
  71.5035        214
  71.7620        242
  72.0205        291
  72.2790        245
  72.5375        265
  72.7960        294
  73.0545        284
  73.3130        281
  73.5715        283
  73.8300        275
  74.0885        258
  74.3470        241
  74.6055        209
  74.8640        223
  75.1225        196
  75.3810        230
  75.6395        241
  75.8980        264
  76.1565        271
  76.4151        225
  76.6736        250
  76.9321        361
  77.1906        355
  77.4491        307
  77.7076        273
  77.9661        273
  78.2246        310
  78.4831        301
  78.7416        330
  79.0001        253
  79.2586        239
  79.5171        226
  79.7756        227
  79.9943        213