File: xrd/SAIFXR190711G-01(A) .uxd
; (content of file E:\SAIF User Data\2019\Adrine Correya RS,ISP,CUSAT\190711G\SAIFXR190711G-01(A).raw)
_FILEVERSION = 2
_SAMPLE = A
_+SAMPLE =
_SITE = "Cochin Uni"
_USER = "Cochin Uni"
_GONIOMETER_CODE = 20
; Goniometer : D8 theta/2theta, stage : Unknown
_SAMPLE_CHANGER_CODE = 0
_ATTACHMENTS_CODE = 0
_GONIOMETER_RADIUS = 217.5
_FIXED_DIVSLIT = 0.15
_FIXED_SAMPLESLIT = 1
_SOLLER_SLITS = 2
_FIXED_DETSLIT = 1
_MONOCHROMATOR = 0
; Incident beam monochromator : None
_THIN_FILM = N
_BETA_FILTER = N
_FIXED_ANTISLIT = 0.15
_ANALYZER_CODE = 0
; Received beam analyzer : None
_DATEMEASURED = "15-Jul-2019 14:44:46"
_WL_UNIT = A
_WL1 = 1.5406
_WL2 = 1.54439
_WL3 = 1.39222
_WLRATIO = 0.5
_ANODE = Cu

; Data for range 1
_DRIVE = COUPLED
_STEPTIME = 59.67
_STEPSIZE = 0.0198849
_STEPMODE = C
_START = 3
_THETA = 1.5
_2THETA = 3
_KHI = 0
_PHI = 0
_X = 0
_Y = 0
_Z = 0
_DETECTOR = 5
; Detector type : Unknown
_DETECTORSLIT = out
_AUX1 = 0
_AUX2 = 0
_AUX3 = 0
_TIMESTARTED = 16
_TEMP_RATE = -1
_TEMP_DELAY = -1
_KV = 40
_MA = 40
_RANGE_WL = 1.5406
_3DPLANE = 0
_V4_COUNTERS_MASK = 4096
_V4_DRIVES_MASK = 0
_V4_ENCODERS_MASK = 0
_2THETACOUNTS = 1
; 2THETA  PSD
   3.0000       2315
   3.2585       1943
   3.5170       1813
   3.7755       1657
   4.0340       1478
   4.2925       1552
   4.5510       1416
   4.8095       1399
   5.0680       1383
   5.3265       1313
   5.5850       1223
   5.8435       1235
   6.1020       1266
   6.3605       1226
   6.6191       1245
   6.8776       1216
   7.1361       1145
   7.3946       1107
   7.6531       1087
   7.9116        962
   8.1701       1010
   8.4286       1105
   8.6871       1207
   8.9456       1110
   9.2041       1015
   9.4626        954
   9.7211        900
   9.9796        834
  10.2381        797
  10.4966        800
  10.7551        807
  11.0136        788
  11.2721        855
  11.5306        770
  11.7891        801
  12.0476        729
  12.3061        770
  12.5646        730
  12.8231        744
  13.0816        751
  13.3401        739
  13.5987        644
  13.8572        673
  14.1157        662
  14.3742        651
  14.6327        661
  14.8912        616
  15.1497        623
  15.4082        575
  15.6667        599
  15.9252        580
  16.1837        602
  16.4422        561
  16.7007        579
  16.9592        572
  17.2177        545
  17.4762        614
  17.7347        609
  17.9932        572
  18.2517        534
  18.5102        566
  18.7687        521
  19.0272        572
  19.2857        512
  19.5442        513
  19.8027        562
  20.0612        518
  20.3197        527
  20.5783        495
  20.8368        489
  21.0953        489
  21.3538        518
  21.6123        516
  21.8708        523
  22.1293        511
  22.3878        510
  22.6463        487
  22.9048        530
  23.1633        545
  23.4218        602
  23.6803        785
  23.9388        736
  24.1973        622
  24.4558        569
  24.7143        577
  24.9728        593
  25.2313        630
  25.4898        654
  25.7483        678
  26.0068        698
  26.2653        687
  26.5238        785
  26.7823        775
  27.0408        810
  27.2993        906
  27.5579       1014
  27.8164       1468
  28.0749       3015
  28.3334       2064
  28.5919       1224
  28.8504       1194
  29.1089       1205
  29.3674        841
  29.6259        808
  29.8844        815
  30.1429        736
  30.4014        754
  30.6599        733
  30.9184        739
  31.1769        763
  31.4354        948
  31.6939       1519
  31.9524        912
  32.2109        714
  32.4694        572
  32.7279        613
  32.9864        620
  33.2449        603
  33.5034        574
  33.7619        601
  34.0204        647
  34.2789        703
  34.5375        681
  34.7960        560
  35.0545        548
  35.3130        499
  35.5715        437
  35.8300        424
  36.0885        411
  36.3470        449
  36.6055        400
  36.8640        395
  37.1225        368
  37.3810        370
  37.6395        364
  37.8980        402
  38.1565        373
  38.4150        383
  38.6735        344
  38.9320        364
  39.1905        291
  39.4490        308
  39.7075        361
  39.9660        370
  40.2245        403
  40.4830        390
  40.7415        435
  41.0000        526
  41.2585        463
  41.5171        453
  41.7756        393
  42.0341        367
  42.2926        373
  42.5511        397
  42.8096        374
  43.0681        418
  43.3266        411
  43.5851        384
  43.8436        391
  44.1021        430
  44.3606        412
  44.6191        433
  44.8776        452
  45.1361        574
  45.3946        687
  45.6531        676
  45.9116        567
  46.1701        509
  46.4286        498
  46.6871        500
  46.9456        522
  47.2041        595
  47.4626        711
  47.7211        650
  47.9796        555
  48.2381        538
  48.4967        538
  48.7552        493
  49.0137        499
  49.2722        457
  49.5307        429
  49.7892        411
  50.0477        379
  50.3062        392
  50.5647        413
  50.8232        418
  51.0817        446
  51.3402        409
  51.5987        422
  51.8572        458
  52.1157        469
  52.3742        477
  52.6327        420
  52.8912        404
  53.1497        414
  53.4082        414
  53.6667        413
  53.9252        516
  54.1837        684
  54.4422        809
  54.7007        617
  54.9592        547
  55.2177        444
  55.4763        423
  55.7348        421
  55.9933        416
  56.2518        415
  56.5103        399
  56.7688        421
  57.0273        425
  57.2858        418
  57.5443        526
  57.8028        527
  58.0613        525
  58.3198        502
  58.5783        492
  58.8368        431
  59.0953        411
  59.3538        379
  59.6123        340
  59.8708        366
  60.1293        400
  60.3878        368
  60.6463        346
  60.9048        333
  61.1633        309
  61.4218        349
  61.6803        353
  61.9388        331
  62.1973        323
  62.4559        348
  62.7144        345
  62.9729        285
  63.2314        253
  63.4899        296
  63.7484        281
  64.0069        264
  64.2654        296
  64.5239        285
  64.7824        289
  65.0409        270
  65.2994        276
  65.5579        258
  65.8164        264
  66.0749        304
  66.3334        286
  66.5919        256
  66.8504        274
  67.1089        252
  67.3674        259
  67.6259        259
  67.8844        258
  68.1429        219
  68.4014        235
  68.6599        285
  68.9184        260
  69.1769        269
  69.4355        230
  69.6940        232
  69.9525        281
  70.2110        231
  70.4695        253
  70.7280        263
  70.9865        244
  71.2450        271
  71.5035        215
  71.7620        273
  72.0205        246
  72.2790        246
  72.5375        280
  72.7960        268
  73.0545        257
  73.3130        273
  73.5715        298
  73.8300        300
  74.0885        254
  74.3470        264
  74.6055        298
  74.8640        268
  75.1225        287
  75.3810        317
  75.6395        295
  75.8980        311
  76.1565        289
  76.4151        296
  76.6736        311
  76.9321        310
  77.1906        285
  77.4491        289
  77.7076        284
  77.9661        276
  78.2246        256
  78.4831        256
  78.7416        284
  79.0001        236
  79.2586        253
  79.5171        261
  79.7756        249
  79.9943        258